;Experimental Spectrum (Polarization=): Lot "fin_q128mib" (298); Slot #10; Wafer "??" [9/21/11 1:07:27 PM]; MS Site #1; Die #14, ColRow[-4,2]; Region Measurement Point #1; Point: (-104295, 34398) - absolute; (3578, 56) - from die left-bottom corner; Focus Z: 3806 counts; MetrologyRecipe: "PROD\055\055PMD-TBOX4";
0
0
0
0
0
0
0
0
0
0
0
0
0
0
4252
4419
4594
4814
5110
5507
5957
6438
6901
7297
7591
7834
7966
8060
8177
8194
8199
8138
8073
7974
7863
7758
7634
7567
7470
7438
7434
7465
7529
7633
7741
7915
8090
8328
8566
8805
9010
9233
9471
9720
9962
10179
10417
10592
10794
10946
11126
11227
11355
11463
11528
11564
11604
11632
11617
11646
11648
11583
11593
11560
11494
11422
11371
11311
11225
11174
11098
11030
10996
10906
10821
10778
10765
10724
10696
10678
10661
10671
10666
10679
10729
10725
10782
10797
10844
10900
10938
10992
11025
11115
11181
11253
11349
11427
11523
11587
11679
11764
11832
11948
12002
12107
12149
12238
12297
12361
12425
12467
12511
12561
12597
12643
12679
12713
12749
12755
12797
12808
12843
12844
12872
12868
12858
12863
12864
12850
12859
12827
12821
12804
12777
12730
12679
12630
12584
12545
12469
12418
12382
12326
12285
12238
12150
12141
12050
11999
11884
11847
11799
11762
11672
11592
11556
11442
11401
11260
11220
11168
11089
10986
10929
10893
10858
10790
10687
10634
10639
10464
10470
10344
10299
10250
10164
10124
10022
10031
9977
10030
9830
9841
9797
9789
9704
9505
0
0
0
0
0
0
0
0
0
0
0
0
0
0
0
0
0
0
0
0
0
0
0
0
0
0
0
0
0
0
0
0
0
0
0
0
0
0
0
0
0
0
0
0
0
0
0
0
0
0
0
0
0
0
0
0
0
0
301.5446839 3.297930197 -0.0001662079439 0 0
