;Experimental Spectrum (Polarization=): Lot "fin_q128mib" (298); Slot #9; Wafer "??" [9/21/11 1:05:31 PM]; MS Site #1; Die #1, ColRow[0,0]; Region Measurement Point #1; Point: (-8152, -30501) - absolute; (3563, 27) - from die left-bottom corner; Focus Z: 4127 counts; MetrologyRecipe: "PROD\055\055PMD-TBOX4";
0
0
0
0
0
0
0
0
0
0
0
0
0
0
4949
5221
5547
5833
6085
6467
6834
7153
7479
7694
7812
7797
7775
7712
7639
7538
7433
7338
7228
7168
7094
7085
7086
7139
7229
7363
7517
7716
7932
8186
8444
8716
8978
9266
9546
9775
9994
10190
10392
10596
10758
10922
11068
11160
11242
11343
11395
11423
11420
11397
11406
11414
11340
11311
11259
11187
11146
11055
10989
10956
10896
10808
10770
10691
10626
10568
10571
10514
10507
10476
10426
10454
10483
10503
10547
10594
10633
10722
10829
10860
10979
11067
11142
11246
11318
11408
11475
11573
11653
11726
11849
11922
12028
12082
12197
12280
12369
12414
12489
12599
12643
12715
12798
12823
12872
12910
12944
12963
12979
12992
13007
13010
13034
13062
13024
13029
13048
13046
13024
13013
12983
12949
12926
12915
12909
12862
12846
12779
12766
12740
12664
12598
12520
12483
12388
12323
12209
12185
12124
12049
12021
11912
11840
11782
11742
11669
11587
11457
11417
11351
11280
11161
11098
11004
10973
10880
10817
10756
10680
10571
10546
10486
10442
10410
10360
10285
10195
10235
10133
10099
10021
9952
9926
9750
9788
9750
9734
9741
9697
9635
9635
9586
9576
9501
0
0
0
0
0
0
0
0
0
0
0
0
0
0
0
0
0
0
0
0
0
0
0
0
0
0
0
0
0
0
0
0
0
0
0
0
0
0
0
0
0
0
0
0
0
0
0
0
0
0
0
0
0
0
0
0
0
0
301.5446839 3.297930197 -0.0001662079439 0 0
