;Experimental Spectrum (Polarization=): Lot "fin_q128mib" (298); Slot #9; Wafer "??" [9/21/11 1:05:31 PM]; MS Site #1; Die #14, ColRow[-4,2]; Region Measurement Point #1; Point: (-104294, 34286) - absolute; (3572, 38) - from die left-bottom corner; Focus Z: 3736 counts; MetrologyRecipe: "PROD\055\055PMD-TBOX4";
0
0
0
0
0
0
0
0
0
0
0
0
0
0
4327
4408
4599
4808
5114
5528
5948
6415
6866
7289
7622
7819
7993
8092
8166
8197
8203
8164
8086
7986
7869
7758
7650
7562
7477
7459
7421
7452
7516
7607
7721
7894
8062
8296
8531
8766
8979
9190
9428
9678
9937
10149
10378
10583
10750
10938
11083
11207
11323
11396
11512
11545
11568
11612
11656
11630
11664
11555
11540
11563
11505
11405
11361
11304
11213
11146
11097
11021
10983
10897
10823
10786
10760
10710
10689
10680
10652
10661
10663
10681
10720
10735
10760
10814
10839
10894
10945
10967
11036
11100
11187
11253
11351
11392
11514
11581
11666
11737
11809
11928
11982
12085
12151
12204
12297
12344
12407
12433
12512
12558
12583
12637
12665
12721
12742
12754
12782
12807
12846
12828
12860
12835
12849
12864
12878
12861
12857
12831
12836
12805
12780
12742
12663
12654
12592
12564
12457
12438
12385
12337
12296
12217
12174
12138
12057
12014
11914
11852
11805
11758
11711
11586
11541
11464
11388
11303
11260
11213
11112
11004
10980
10901
10857
10805
10706
10673
10566
10540
10488
10403
10324
10301
10178
10152
10040
10070
9981
9961
9997
9856
9803
9793
9668
9748
0
0
0
0
0
0
0
0
0
0
0
0
0
0
0
0
0
0
0
0
0
0
0
0
0
0
0
0
0
0
0
0
0
0
0
0
0
0
0
0
0
0
0
0
0
0
0
0
0
0
0
0
0
0
0
0
0
0
301.5446839 3.297930197 -0.0001662079439 0 0
