;Experimental Spectrum (Polarization=): Lot "fin_q128mib" (298); Slot #10; Wafer "??" [9/21/11 1:07:27 PM]; MS Site #1; Die #15, ColRow[-2,4]; Region Measurement Point #1; Point: (-56223, 99191) - absolute; (3573, 74) - from die left-bottom corner; Focus Z: 3720 counts; MetrologyRecipe: "PROD\055\055PMD-TBOX4";
0
0
0
0
0
0
0
0
0
0
0
0
0
0
4259
4403
4584
4813
5105
5490
5957
6446
6894
7271
7558
7825
7925
8035
8107
8125
8127
8066
7985
7882
7777
7670
7550
7475
7413
7370
7381
7417
7487
7600
7750
7897
8099
8328
8573
8794
9020
9232
9462
9714
9944
10140
10378
10575
10720
10916
11062
11210
11295
11378
11424
11537
11529
11576
11534
11567
11550
11543
11499
11457
11408
11333
11263
11210
11134
11059
11018
10933
10912
10800
10739
10691
10666
10661
10618
10593
10601
10607
10625
10637
10658
10712
10734
10778
10838
10868
10936
10985
11057
11105
11186
11248
11341
11420
11523
11586
11660
11757
11844
11934
11997
12097
12142
12212
12296
12350
12405
12442
12486
12537
12567
12615
12661
12669
12703
12735
12762
12784
12791
12801
12819
12819
12799
12805
12801
12803
12805
12781
12751
12746
12692
12663
12625
12589
12515
12477
12398
12358
12355
12265
12230
12181
12090
12082
11992
11943
11868
11786
11728
11703
11618
11554
11488
11388
11370
11219
11142
11115
11034
10951
10844
10869
10761
10758
10617
10586
10578
10415
10411
10290
10216
10200
10171
10010
9994
9910
9941
9913
9825
9760
9841
9777
9624
9574
0
0
0
0
0
0
0
0
0
0
0
0
0
0
0
0
0
0
0
0
0
0
0
0
0
0
0
0
0
0
0
0
0
0
0
0
0
0
0
0
0
0
0
0
0
0
0
0
0
0
0
0
0
0
0
0
0
0
301.5446839 3.297930197 -0.0001662079439 0 0
